Wavelength;(nm);TCS01;TCS02;TCS03;TCS04;TCS05;TCS06;TCS07;TCS08;TCS09;TCS10;TCS11;TCS12;TCS13;TCS14
380;0.2190;0.0700;0.0650;0.0740;0.2950;0.1500;0.3780;0.1040;0.0660;0.0500;0.1110;0.1200;0.1040;0.0360
381;0.2234;0.0718;0.0657;0.0758;0.2977;0.1602;0.3951;0.1084;0.0652;0.0508;0.1132;0.1164;0.1082;0.0360
382;0.2277;0.0735;0.0663;0.0775;0.3003;0.1705;0.4119;0.1130;0.0644;0.0515;0.1154;0.1128;0.1125;0.0360
383;0.2318;0.0753;0.0669;0.0793;0.3026;0.1810;0.4283;0.1178;0.0636;0.0523;0.1175;0.1094;0.1169;0.0360
384;0.2356;0.0771;0.0675;0.0811;0.3045;0.1918;0.4441;0.1231;0.0628;0.0531;0.1194;0.1061;0.1218;0.0360
385;0.2390;0.0790;0.0680;0.0830;0.3060;0.2030;0.4590;0.1290;0.0620;0.0540;0.1210;0.1030;0.1270;0.0360
386;0.2422;0.0809;0.0685;0.0849;0.3071;0.2146;0.4739;0.1356;0.0612;0.0549;0.1225;0.1001;0.1328;0.0361
387;0.2453;0.0828;0.0689;0.0868;0.3080;0.2266;0.4891;0.1429;0.0603;0.0560;0.1239;0.0973;0.1390;0.0363
388;0.2481;0.0848;0.0692;0.0888;0.3088;0.2389;0.5033;0.1511;0.0595;0.0570;0.1252;0.0946;0.1458;0.0365
389;0.2504;0.0869;0.0696;0.0909;0.3094;0.2517;0.5153;0.1601;0.0587;0.0581;0.1262;0.0921;0.1532;0.0368
390;0.2520;0.0890;0.0700;0.0930;0.3100;0.2650;0.5240;0.1700;0.0580;0.0590;0.1270;0.0900;0.1610;0.0370
391;0.2532;0.0913;0.0704;0.0953;0.3105;0.2790;0.5302;0.1815;0.0573;0.0599;0.1276;0.0881;0.1697;0.0372
392;0.2543;0.0937;0.0709;0.0977;0.3110;0.2938;0.5357;0.1950;0.0567;0.0607;0.1281;0.0864;0.1795;0.0374
393;0.2552;0.0963;0.0713;0.1002;0.3114;0.3090;0.5402;0.2096;0.0562;0.0615;0.1286;0.0849;0.1899;0.0376
394;0.2558;0.0987;0.0717;0.1026;0.3117;0.3242;0.5437;0.2249;0.0556;0.0623;0.1289;0.0834;0.2005;0.0378
395;0.2560;0.1010;0.0720;0.1050;0.3120;0.3390;0.5460;0.2400;0.0550;0.0630;0.1290;0.0820;0.2110;0.0380
396;0.2560;0.1032;0.0723;0.1074;0.3122;0.3537;0.5474;0.2549;0.0543;0.0637;0.1289;0.0807;0.2215;0.0382
397;0.2560;0.1055;0.0725;0.1099;0.3124;0.3685;0.5485;0.2701;0.0535;0.0644;0.1286;0.0796;0.2322;0.0385
398;0.2560;0.1076;0.0728;0.1122;0.3126;0.3831;0.5494;0.2858;0.0528;0.0651;0.1281;0.0784;0.2430;0.0387
399;0.2560;0.1095;0.0729;0.1143;0.3128;0.3971;0.5502;0.3020;0.0522;0.0656;0.1276;0.0773;0.2536;0.0389
400;0.2560;0.1110;0.0730;0.1160;0.3130;0.4100;0.5510;0.3190;0.0520;0.0660;0.1270;0.0760;0.2640;0.0390
401;0.2559;0.1123;0.0730;0.1173;0.3133;0.4223;0.5519;0.3382;0.0520;0.0663;0.1262;0.0745;0.2745;0.0390
402;0.2555;0.1134;0.0730;0.1184;0.3136;0.4343;0.5527;0.3597;0.0520;0.0665;0.1250;0.0727;0.2852;0.0390
403;0.2550;0.1145;0.0730;0.1194;0.3140;0.4456;0.5534;0.3812;0.0520;0.0666;0.1236;0.0709;0.2955;0.0390
404;0.2545;0.1153;0.0730;0.1202;0.3145;0.4556;0.5542;0.4007;0.0520;0.0668;0.1222;0.0693;0.3050;0.0390
405;0.2540;0.1160;0.0730;0.1210;0.3150;0.4640;0.5550;0.4160;0.0520;0.0670;0.1210;0.0680;0.3130;0.0390
406;0.2536;0.1165;0.0731;0.1217;0.3156;0.4710;0.5559;0.4279;0.0519;0.0672;0.1199;0.0669;0.3200;0.0391
407;0.2533;0.1169;0.0734;0.1224;0.3165;0.4772;0.5568;0.4385;0.0517;0.0674;0.1189;0.0658;0.3265;0.0393
408;0.2529;0.1173;0.0736;0.1230;0.3174;0.4828;0.5577;0.4478;0.0515;0.0676;0.1179;0.0649;0.3323;0.0395
409;0.2525;0.1176;0.0739;0.1235;0.3182;0.4877;0.5585;0.4556;0.0512;0.0678;0.1169;0.0642;0.3372;0.0398
410;0.2520;0.1180;0.0740;0.1240;0.3190;0.4920;0.5590;0.4620;0.0510;0.0680;0.1160;0.0640;0.3410;0.0400
411;0.2514;0.1184;0.0740;0.1245;0.3196;0.4959;0.5593;0.4673;0.0508;0.0682;0.1151;0.0640;0.3439;0.0402
412;0.2506;0.1189;0.0740;0.1249;0.3202;0.4995;0.5595;0.4720;0.0505;0.0685;0.1143;0.0642;0.3463;0.0404
413;0.2497;0.1193;0.0740;0.1252;0.3208;0.5027;0.5597;0.4760;0.0503;0.0687;0.1136;0.0644;0.3484;0.0406
414;0.2488;0.1197;0.0740;0.1256;0.3214;0.5055;0.5598;0.4793;0.0501;0.0689;0.1128;0.0647;0.3503;0.0408
415;0.2480;0.1200;0.0740;0.1260;0.3220;0.5080;0.5600;0.4820;0.0500;0.0690;0.1120;0.0650;0.3520;0.0410
416;0.2472;0.1202;0.0740;0.1264;0.3227;0.5102;0.5602;0.4843;0.0500;0.0690;0.1112;0.0659;0.3537;0.0412
417;0.2464;0.1204;0.0740;0.1268;0.3235;0.5121;0.5605;0.4865;0.0500;0.0690;0.1103;0.0675;0.3554;0.0415
418;0.2456;0.1206;0.0740;0.1271;0.3243;0.5138;0.5607;0.4883;0.0500;0.0690;0.1095;0.0698;0.3569;0.0417
419;0.2448;0.1208;0.0740;0.1275;0.3252;0.5154;0.5609;0.4895;0.0500;0.0690;0.1087;0.0724;0.3581;0.0419
420;0.2440;0.1210;0.0740;0.1280;0.3260;0.5170;0.5610;0.4900;0.0500;0.0690;0.1080;0.0750;0.3590;0.0420
421;0.2432;0.1212;0.0739;0.1285;0.3268;0.5185;0.5608;0.4899;0.0499;0.0691;0.1073;0.0778;0.3595;0.0420
422;0.2423;0.1215;0.0736;0.1291;0.3276;0.5199;0.5602;0.4896;0.0497;0.0692;0.1066;0.0810;0.3599;0.0420
423;0.2415;0.1217;0.0734;0.1297;0.3284;0.5213;0.5594;0.4891;0.0495;0.0695;0.1059;0.0847;0.3602;0.0420
424;0.2407;0.1219;0.0731;0.1303;0.3292;0.5226;0.5586;0.4886;0.0492;0.0697;0.1054;0.0887;0.3606;0.0420
425;0.2400;0.1220;0.0730;0.1310;0.3300;0.5240;0.5580;0.4880;0.0490;0.0700;0.1050;0.0930;0.3610;0.0420
426;0.2394;0.1220;0.0730;0.1317;0.3308;0.5254;0.5576;0.4872;0.0488;0.0703;0.1047;0.0979;0.3616;0.0421
427;0.2388;0.1220;0.0730;0.1325;0.3316;0.5268;0.5572;0.4861;0.0486;0.0708;0.1044;0.1036;0.3623;0.0423
428;0.2383;0.1220;0.0730;0.1333;0.3323;0.5282;0.5569;0.4849;0.0484;0.0712;0.1042;0.1098;0.3630;0.0425
429;0.2377;0.1220;0.0730;0.1342;0.3331;0.5296;0.5565;0.4834;0.0482;0.0717;0.1041;0.1164;0.3636;0.0428
430;0.2370;0.1220;0.0730;0.1350;0.3340;0.5310;0.5560;0.4820;0.0480;0.0720;0.1040;0.1230;0.3640;0.0430
431;0.2361;0.1220;0.0730;0.1358;0.3349;0.5324;0.5553;0.4805;0.0478;0.0722;0.1040;0.1298;0.3643;0.0432
432;0.2350;0.1220;0.0730;0.1366;0.3358;0.5339;0.5544;0.4787;0.0476;0.0724;0.1040;0.1368;0.3644;0.0435
433;0.2338;0.1220;0.0730;0.1373;0.3368;0.5353;0.5533;0.4769;0.0474;0.0726;0.1040;0.1442;0.3646;0.0437
434;0.2328;0.1220;0.0730;0.1381;0.3379;0.5367;0.5522;0.4750;0.0472;0.0727;0.1040;0.1519;0.3648;0.0439
435;0.2320;0.1220;0.0730;0.1390;0.3390;0.5380;0.5510;0.4730;0.0470;0.0730;0.1040;0.1600;0.3650;0.0440
436;0.2315;0.1221;0.0730;0.1399;0.3403;0.5392;0.5498;0.4710;0.0468;0.0734;0.1041;0.1687;0.3653;0.0440
437;0.2311;0.1223;0.0730;0.1408;0.3417;0.5404;0.5485;0.4688;0.0466;0.0740;0.1043;0.1779;0.3657;0.0440
438;0.2308;0.1225;0.0730;0.1418;0.3432;0.5416;0.5470;0.4666;0.0464;0.0747;0.1045;0.1875;0.3661;0.0440
439;0.2305;0.1228;0.0730;0.1429;0.3446;0.5428;0.5455;0.4643;0.0462;0.0754;0.1048;0.1973;0.3666;0.0440
440;0.2300;0.1230;0.0730;0.1440;0.3460;0.5440;0.5440;0.4620;0.0460;0.0760;0.1050;0.2070;0.3670;0.0440
441;0.2293;0.1232;0.0730;0.1452;0.3472;0.5454;0.5424;0.4597;0.0457;0.0764;0.1052;0.2168;0.3674;0.0441
442;0.2284;0.1234;0.0730;0.1465;0.3484;0.5468;0.5407;0.4572;0.0453;0.0768;0.1053;0.2267;0.3678;0.0444
443;0.2274;0.1235;0.0730;0.1479;0.3495;0.5483;0.5389;0.4548;0.0449;0.0771;0.1055;0.2367;0.3681;0.0446
444;0.2265;0.1237;0.0730;0.1494;0.3507;0.5497;0.5370;0.4523;0.0444;0.0775;0.1057;0.2465;0.3685;0.0449
445;0.2260;0.1240;0.0730;0.1510;0.3520;0.5510;0.5350;0.4500;0.0440;0.0780;0.1060;0.2560;0.3690;0.0450
446;0.2257;0.1245;0.0731;0.1528;0.3534;0.5523;0.5327;0.4478;0.0436;0.0787;0.1065;0.2653;0.3695;0.0450
447;0.2256;0.1251;0.0733;0.1547;0.3550;0.5536;0.5303;0.4456;0.0431;0.0797;0.1072;0.2747;0.3702;0.0450
448;0.2254;0.1259;0.0735;0.1568;0.3566;0.5548;0.5276;0.4435;0.0427;0.0808;0.1081;0.2837;0.3708;0.0450
449;0.2252;0.1265;0.0738;0.1589;0.3583;0.5557;0.5248;0.4413;0.0423;0.0819;0.1091;0.2923;0.3715;0.0450
450;0.2250;0.1270;0.0740;0.1610;0.3600;0.5560;0.5220;0.4390;0.0420;0.0830;0.1100;0.3000;0.3720;0.0450
451;0.2246;0.1272;0.0742;0.1631;0.3617;0.5560;0.5190;0.4365;0.0418;0.0840;0.1109;0.3072;0.3725;0.0451
452;0.2240;0.1274;0.0744;0.1652;0.3634;0.5560;0.5159;0.4340;0.0416;0.0849;0.1118;0.3142;0.3729;0.0453
453;0.2233;0.1276;0.0746;0.1674;0.3652;0.5560;0.5127;0.4313;0.0414;0.0859;0.1128;0.3207;0.3732;0.0455
454;0.2226;0.1278;0.0748;0.1696;0.3670;0.5560;0.5094;0.4286;0.0413;0.0869;0.1138;0.3264;0.3736;0.0458
455;0.2220;0.1280;0.0750;0.1720;0.3690;0.5560;0.5060;0.4260;0.0410;0.0880;0.1150;0.3310;0.3740;0.0460
456;0.2215;0.1284;0.0753;0.1745;0.3712;0.5559;0.5026;0.4234;0.0406;0.0891;0.1163;0.3351;0.3744;0.0462
457;0.2211;0.1290;0.0757;0.1772;0.3735;0.5556;0.4990;0.4209;0.0400;0.0902;0.1178;0.3390;0.3748;0.0464
458;0.2208;0.1297;0.0761;0.1799;0.3760;0.5551;0.4954;0.4184;0.0393;0.0914;0.1194;0.3424;0.3751;0.0466
459;0.2204;0.1304;0.0765;0.1829;0.3785;0.5546;0.4917;0.4158;0.0386;0.0930;0.1212;0.3448;0.3755;0.0468
460;0.2200;0.1310;0.0770;0.1860;0.3810;0.5540;0.4880;0.4130;0.0380;0.0950;0.1230;0.3460;0.3760;0.0470
461;0.2196;0.1316;0.0775;0.1894;0.3836;0.5533;0.4843;0.4100;0.0374;0.1001;0.1249;0.3463;0.3765;0.0472
462;0.2192;0.1322;0.0780;0.1930;0.3864;0.5524;0.4806;0.4068;0.0367;0.1090;0.1270;0.3466;0.3770;0.0474
463;0.2188;0.1327;0.0786;0.1968;0.3891;0.5514;0.4768;0.4035;0.0361;0.1188;0.1292;0.3468;0.3776;0.0476
464;0.2184;0.1333;0.0793;0.2008;0.3917;0.5502;0.4729;0.4002;0.0355;0.1267;0.1316;0.3470;0.3783;0.0478
465;0.2180;0.1340;0.0800;0.2050;0.3940;0.5490;0.4690;0.3970;0.0350;0.1300;0.1340;0.3470;0.3790;0.0480
466;0.2176;0.1347;0.0808;0.2094;0.3960;0.5477;0.4649;0.3940;0.0345;0.1282;0.1365;0.3466;0.3798;0.0483
467;0.2172;0.1355;0.0817;0.2142;0.3979;0.5462;0.4607;0.3910;0.0341;0.1240;0.1392;0.3457;0.3808;0.0487
468;0.2168;0.1363;0.0827;0.2191;0.3997;0.5445;0.4563;0.3880;0.0338;0.1190;0.1419;0.3443;0.3819;0.0491
469;0.2164;0.1371;0.0838;0.2240;0.4014;0.5428;0.4521;0.3850;0.0334;0.1148;0.1449;0.3427;0.3830;0.0496
470;0.2160;0.1380;0.0850;0.2290;0.4030;0.5410;0.4480;0.3820;0.0330;0.1130;0.1480;0.3410;0.3840;0.0500
471;0.2155;0.1389;0.0864;0.2339;0.4045;0.5392;0.4441;0.3788;0.0326;0.1138;0.1513;0.3391;0.3850;0.0504
472;0.2150;0.1398;0.0880;0.2388;0.4060;0.5372;0.4404;0.3756;0.0321;0.1159;0.1549;0.3368;0.3859;0.0508
473;0.2145;0.1408;0.0898;0.2438;0.4075;0.5352;0.4366;0.3723;0.0317;0.1188;0.1588;0.3341;0.3868;0.0511
474;0.2141;0.1419;0.0918;0.2489;0.4088;0.5332;0.4329;0.3691;0.0313;0.1220;0.1628;0.3311;0.3879;0.0515
475;0.2140;0.1430;0.0940;0.2540;0.4100;0.5310;0.4290;0.3660;0.0310;0.1250;0.1670;0.3280;0.3890;0.0520
476;0.2140;0.1442;0.0965;0.2593;0.4111;0.5288;0.4250;0.3631;0.0308;0.1280;0.1715;0.3245;0.3904;0.0525
477;0.2140;0.1455;0.0994;0.2647;0.4122;0.5265;0.4208;0.3603;0.0306;0.1312;0.1764;0.3205;0.3919;0.0532
478;0.2140;0.1470;0.1025;0.2701;0.4133;0.5241;0.4166;0.3576;0.0304;0.1347;0.1815;0.3161;0.3936;0.0538
479;0.2140;0.1485;0.1058;0.2756;0.4142;0.5216;0.4124;0.3548;0.0302;0.1383;0.1868;0.3116;0.3953;0.0545
480;0.2140;0.1500;0.1090;0.2810;0.4150;0.5190;0.4080;0.3520;0.0300;0.1420;0.1920;0.3070;0.3970;0.0550
481;0.2140;0.1516;0.1122;0.2865;0.4157;0.5162;0.4035;0.3490;0.0298;0.1457;0.1972;0.3023;0.3986;0.0554
482;0.2140;0.1532;0.1154;0.2920;0.4165;0.5133;0.3989;0.3459;0.0296;0.1495;0.2024;0.2973;0.4001;0.0558
483;0.2140;0.1550;0.1188;0.2974;0.4171;0.5102;0.3942;0.3428;0.0294;0.1534;0.2077;0.2922;0.4016;0.0561
484;0.2140;0.1569;0.1223;0.3028;0.4176;0.5071;0.3896;0.3398;0.0292;0.1576;0.2132;0.2871;0.4032;0.0565
485;0.2140;0.1590;0.1260;0.3080;0.4180;0.5040;0.3850;0.3370;0.0290;0.1620;0.2190;0.2820;0.4050;0.0570
486;0.2141;0.1615;0.1300;0.3131;0.4183;0.5009;0.3805;0.3345;0.0288;0.1668;0.2251;0.2770;0.4069;0.0577
487;0.2145;0.1644;0.1343;0.3180;0.4186;0.4978;0.3761;0.3321;0.0285;0.1721;0.2315;0.2721;0.4091;0.0587
488;0.2150;0.1676;0.1388;0.3228;0.4188;0.4946;0.3718;0.3299;0.0283;0.1776;0.2381;0.2671;0.4113;0.0598
489;0.2155;0.1708;0.1434;0.3275;0.4189;0.4914;0.3674;0.3275;0.0281;0.1833;0.2449;0.2621;0.4136;0.0609
490;0.2160;0.1740;0.1480;0.3320;0.4190;0.4880;0.3630;0.3250;0.0280;0.1890;0.2520;0.2570;0.4160;0.0620
491;0.2164;0.1771;0.1526;0.3363;0.4189;0.4844;0.3585;0.3221;0.0280;0.1946;0.2595;0.2517;0.4184;0.0630
492;0.2167;0.1803;0.1574;0.3404;0.4186;0.4806;0.3539;0.3190;0.0280;0.2003;0.2674;0.2463;0.4210;0.0639
493;0.2171;0.1835;0.1622;0.3443;0.4181;0.4768;0.3494;0.3158;0.0280;0.2061;0.2755;0.2408;0.4236;0.0648
494;0.2175;0.1867;0.1670;0.3482;0.4175;0.4729;0.3450;0.3128;0.0280;0.2123;0.2834;0.2354;0.4263;0.0659
495;0.2180;0.1900;0.1720;0.3520;0.4170;0.4690;0.3410;0.3100;0.0280;0.2190;0.2910;0.2300;0.4290;0.0670
496;0.2188;0.1933;0.1771;0.3558;0.4164;0.4652;0.3372;0.3076;0.0280;0.2266;0.2983;0.2247;0.4318;0.0684
497;0.2199;0.1967;0.1824;0.3596;0.4156;0.4614;0.3337;0.3053;0.0280;0.2351;0.3056;0.2195;0.4347;0.0699
498;0.2211;0.2001;0.1877;0.3633;0.4147;0.4576;0.3303;0.3032;0.0280;0.2441;0.3127;0.2144;0.4376;0.0716
499;0.2222;0.2035;0.1930;0.3668;0.4138;0.4538;0.3270;0.3011;0.0280;0.2532;0.3192;0.2092;0.4404;0.0733
500;0.2230;0.2070;0.1980;0.3700;0.4130;0.4500;0.3240;0.2990;0.0280;0.2620;0.3250;0.2040;0.4430;0.0750
501;0.2235;0.2106;0.2028;0.3730;0.4122;0.4462;0.3211;0.2969;0.0281;0.2704;0.3303;0.1988;0.4454;0.0766
502;0.2240;0.2142;0.2076;0.3759;0.4115;0.4423;0.3184;0.2947;0.0283;0.2785;0.3354;0.1935;0.4478;0.0782
503;0.2244;0.2178;0.2122;0.3786;0.4107;0.4384;0.3158;0.2926;0.0285;0.2868;0.3400;0.1883;0.4501;0.0797
504;0.2247;0.2214;0.2167;0.3810;0.4099;0.4347;0.3133;0.2907;0.0288;0.2955;0.3439;0.1831;0.4522;0.0813
505;0.2250;0.2250;0.2210;0.3830;0.4090;0.4310;0.3110;0.2890;0.0290;0.3050;0.3470;0.1780;0.4540;0.0830
506;0.2253;0.2286;0.2252;0.3847;0.4080;0.4275;0.3088;0.2876;0.0292;0.3159;0.3496;0.1731;0.4556;0.0847
507;0.2255;0.2322;0.2293;0.3863;0.4068;0.4242;0.3068;0.2864;0.0295;0.3280;0.3520;0.1683;0.4571;0.0866
508;0.2258;0.2358;0.2332;0.3877;0.4056;0.4208;0.3049;0.2853;0.0297;0.3407;0.3541;0.1636;0.4585;0.0884
509;0.2259;0.2391;0.2371;0.3889;0.4043;0.4175;0.3030;0.2842;0.0299;0.3533;0.3555;0.1588;0.4598;0.0903
510;0.2260;0.2420;0.2410;0.3900;0.4030;0.4140;0.3010;0.2830;0.0300;0.3650;0.3560;0.1540;0.4610;0.0920
511;0.2260;0.2446;0.2449;0.3910;0.4017;0.4103;0.2990;0.2817;0.0300;0.3758;0.3558;0.1490;0.4621;0.0937
512;0.2260;0.2470;0.2487;0.3920;0.4003;0.4065;0.2969;0.2802;0.0300;0.3861;0.3553;0.1438;0.4632;0.0953
513;0.2260;0.2492;0.2525;0.3929;0.3989;0.4026;0.2948;0.2788;0.0300;0.3961;0.3547;0.1386;0.4643;0.0968
514;0.2260;0.2512;0.2563;0.3935;0.3974;0.3988;0.2929;0.2773;0.0300;0.4061;0.3538;0.1337;0.4652;0.0984
515;0.2260;0.2530;0.2600;0.3940;0.3960;0.3950;0.2910;0.2760;0.0300;0.4160;0.3530;0.1290;0.4660;0.1000
516;0.2259;0.2547;0.2636;0.3943;0.3946;0.3914;0.2893;0.2748;0.0301;0.4260;0.3520;0.1247;0.4667;0.1015
517;0.2256;0.2562;0.2670;0.3946;0.3932;0.3878;0.2878;0.2736;0.0304;0.4360;0.3508;0.1206;0.4674;0.1030
518;0.2254;0.2576;0.2705;0.3948;0.3919;0.3842;0.2862;0.2725;0.0306;0.4459;0.3494;0.1167;0.4680;0.1045
519;0.2251;0.2589;0.2741;0.3949;0.3905;0.3806;0.2847;0.2713;0.0309;0.4556;0.3478;0.1129;0.4685;0.1062
520;0.2250;0.2600;0.2780;0.3950;0.3890;0.3770;0.2830;0.2700;0.0310;0.4650;0.3460;0.1090;0.4690;0.1080
521;0.2250;0.2610;0.2822;0.3948;0.3875;0.3732;0.2811;0.2685;0.0310;0.4742;0.3440;0.1051;0.4694;0.1102
522;0.2250;0.2618;0.2866;0.3943;0.3859;0.3694;0.2791;0.2669;0.0310;0.4833;0.3416;0.1011;0.4698;0.1128
523;0.2250;0.2626;0.2913;0.3937;0.3843;0.3655;0.2769;0.2651;0.0310;0.4922;0.3389;0.0972;0.4702;0.1156
524;0.2250;0.2633;0.2964;0.3928;0.3827;0.3617;0.2749;0.2635;0.0310;0.5008;0.3360;0.0935;0.4706;0.1184
525;0.2250;0.2640;0.3020;0.3920;0.3810;0.3580;0.2730;0.2620;0.0310;0.5090;0.3330;0.0900;0.4710;0.1210
526;0.2251;0.2647;0.3085;0.3910;0.3793;0.3545;0.2712;0.2607;0.0311;0.5168;0.3297;0.0867;0.4715;0.1235
527;0.2255;0.2653;0.3160;0.3896;0.3775;0.3510;0.2695;0.2594;0.0314;0.5244;0.3260;0.0836;0.4722;0.1260
528;0.2260;0.2659;0.3239;0.3881;0.3757;0.3476;0.2678;0.2582;0.0316;0.5317;0.3220;0.0807;0.4728;0.1285
529;0.2265;0.2665;0.3318;0.3865;0.3738;0.3443;0.2663;0.2571;0.0319;0.5388;0.3180;0.0778;0.4735;0.1308
530;0.2270;0.2670;0.3390;0.3850;0.3720;0.3410;0.2650;0.2560;0.0320;0.5460;0.3140;0.0750;0.4740;0.1330
531;0.2275;0.2674;0.3457;0.3835;0.3702;0.3377;0.2638;0.2548;0.0320;0.5532;0.3101;0.0722;0.4744;0.1350
532;0.2280;0.2678;0.3523;0.3820;0.3684;0.3345;0.2627;0.2536;0.0320;0.5605;0.3062;0.0696;0.4748;0.1368
533;0.2286;0.2682;0.3586;0.3804;0.3667;0.3314;0.2617;0.2525;0.0320;0.5676;0.3023;0.0670;0.4751;0.1386
534;0.2293;0.2686;0.3646;0.3787;0.3649;0.3282;0.2608;0.2516;0.0320;0.5745;0.2982;0.0644;0.4755;0.1403
535;0.2300;0.2690;0.3700;0.3770;0.3630;0.3250;0.2600;0.2510;0.0320;0.5810;0.2940;0.0620;0.4760;0.1420
536;0.2309;0.2695;0.3752;0.3752;0.3611;0.3218;0.2592;0.2507;0.0321;0.5872;0.2896;0.0597;0.4769;0.1437
537;0.2320;0.2701;0.3804;0.3733;0.3591;0.3186;0.2584;0.2504;0.0323;0.5933;0.2850;0.0574;0.4782;0.1455
538;0.2332;0.2707;0.3852;0.3713;0.3571;0.3154;0.2577;0.2502;0.0325;0.5991;0.2804;0.0552;0.4798;0.1472
539;0.2346;0.2713;0.3892;0.3692;0.3551;0.3122;0.2572;0.2501;0.0328;0.6046;0.2757;0.0531;0.4815;0.1488
540;0.2360;0.2720;0.3920;0.3670;0.3530;0.3090;0.2570;0.2500;0.0330;0.6100;0.2710;0.0510;0.4830;0.1500
541;0.2375;0.2727;0.3940;0.3646;0.3509;0.3058;0.2570;0.2501;0.0332;0.6152;0.2664;0.0489;0.4843;0.1510
542;0.2393;0.2734;0.3958;0.3620;0.3487;0.3025;0.2570;0.2502;0.0334;0.6202;0.2617;0.0467;0.4855;0.1520
543;0.2411;0.2742;0.3973;0.3594;0.3465;0.2992;0.2570;0.2504;0.0336;0.6250;0.2570;0.0446;0.4868;0.1529
544;0.2430;0.2751;0.3984;0.3567;0.3442;0.2961;0.2570;0.2507;0.0338;0.6296;0.2525;0.0427;0.4882;0.1535
545;0.2450;0.2760;0.3990;0.3540;0.3420;0.2930;0.2570;0.2510;0.0340;0.6340;0.2480;0.0410;0.4900;0.1540
546;0.2472;0.2770;0.3993;0.3514;0.3398;0.2901;0.2572;0.2514;0.0342;0.6382;0.2437;0.0396;0.4923;0.1543
547;0.2496;0.2782;0.3996;0.3488;0.3376;0.2873;0.2576;0.2519;0.0344;0.6423;0.2395;0.0384;0.4953;0.1546
548;0.2520;0.2794;0.3998;0.3463;0.3354;0.2845;0.2581;0.2526;0.0346;0.6461;0.2353;0.0373;0.4987;0.1548
549;0.2542;0.2807;0.4000;0.3437;0.3332;0.2818;0.2586;0.2533;0.0348;0.6497;0.2312;0.0362;0.5024;0.1549
550;0.2560;0.2820;0.4000;0.3410;0.3310;0.2790;0.2590;0.2540;0.0350;0.6530;0.2270;0.0350;0.5060;0.1550
551;0.2574;0.2833;0.3996;0.3383;0.3288;0.2762;0.2593;0.2547;0.0353;0.6559;0.2227;0.0338;0.5096;0.1548
552;0.2585;0.2846;0.3984;0.3355;0.3266;0.2733;0.2595;0.2554;0.0356;0.6586;0.2184;0.0325;0.5134;0.1543
553;0.2596;0.2860;0.3968;0.3327;0.3245;0.2704;0.2598;0.2562;0.0360;0.6611;0.2142;0.0312;0.5174;0.1536
554;0.2607;0.2874;0.3949;0.3299;0.3223;0.2677;0.2599;0.2571;0.0365;0.6635;0.2100;0.0300;0.5215;0.1528
555;0.2620;0.2890;0.3930;0.3270;0.3200;0.2650;0.2600;0.2580;0.0370;0.6660;0.2060;0.0290;0.5260;0.1520
556;0.2637;0.2908;0.3909;0.3241;0.3177;0.2625;0.2600;0.2591;0.0376;0.6685;0.2022;0.0281;0.5309;0.1512
557;0.2656;0.2927;0.3885;0.3211;0.3153;0.2601;0.2600;0.2603;0.0385;0.6710;0.1986;0.0272;0.5361;0.1503
558;0.2677;0.2948;0.3857;0.3181;0.3129;0.2577;0.2600;0.2616;0.0394;0.6735;0.1951;0.0264;0.5417;0.1492
559;0.2699;0.2969;0.3828;0.3151;0.3104;0.2554;0.2600;0.2628;0.0402;0.6758;0.1916;0.0257;0.5473;0.1481
560;0.2720;0.2990;0.3800;0.3120;0.3080;0.2530;0.2600;0.2640;0.0410;0.6780;0.1880;0.0250;0.5530;0.1470
561;0.2741;0.3010;0.3772;0.3089;0.3056;0.2505;0.2599;0.2651;0.0416;0.6800;0.1844;0.0243;0.5586;0.1457
562;0.2762;0.3029;0.3742;0.3057;0.3032;0.2479;0.2595;0.2662;0.0422;0.6820;0.1808;0.0237;0.5642;0.1444
563;0.2783;0.3048;0.3712;0.3024;0.3008;0.2453;0.2590;0.2672;0.0428;0.6838;0.1771;0.0232;0.5699;0.1429
564;0.2806;0.3068;0.3681;0.2992;0.2984;0.2430;0.2585;0.2682;0.0434;0.6855;0.1735;0.0226;0.5758;0.1414
565;0.2830;0.3090;0.3650;0.2960;0.2960;0.2410;0.2580;0.2690;0.0440;0.6870;0.1700;0.0220;0.5820;0.1400
566;0.2856;0.3115;0.3619;0.2928;0.2936;0.2394;0.2576;0.2697;0.0447;0.6884;0.1665;0.0214;0.5888;0.1386
567;0.2885;0.3143;0.3587;0.2896;0.2912;0.2379;0.2572;0.2704;0.0455;0.6896;0.1630;0.0207;0.5960;0.1372
568;0.2915;0.3172;0.3555;0.2865;0.2889;0.2366;0.2568;0.2710;0.0463;0.6908;0.1596;0.0201;0.6035;0.1359
569;0.2947;0.3198;0.3523;0.2833;0.2865;0.2353;0.2564;0.2715;0.0472;0.6919;0.1562;0.0195;0.6109;0.1345
570;0.2980;0.3220;0.3490;0.2800;0.2840;0.2340;0.2560;0.2720;0.0480;0.6930;0.1530;0.0190;0.6180;0.1330
571;0.3016;0.3237;0.3457;0.2766;0.2814;0.2325;0.2555;0.2724;0.0488;0.6941;0.1498;0.0185;0.6249;0.1315
572;0.3055;0.3252;0.3423;0.2732;0.2788;0.2308;0.2550;0.2728;0.0495;0.6952;0.1468;0.0180;0.6316;0.1298
573;0.3095;0.3265;0.3388;0.2698;0.2761;0.2292;0.2545;0.2731;0.0502;0.6962;0.1438;0.0175;0.6382;0.1282
574;0.3137;0.3277;0.3354;0.2664;0.2735;0.2279;0.2541;0.2735;0.0510;0.6972;0.1408;0.0171;0.6447;0.1265
575;0.3180;0.3290;0.3320;0.2630;0.2710;0.2270;0.2540;0.2740;0.0520;0.6980;0.1380;0.0170;0.6510;0.1250
576;0.3223;0.3303;0.3286;0.2598;0.2687;0.2265;0.2540;0.2746;0.0532;0.6987;0.1352;0.0170;0.6572;0.1235
577;0.3268;0.3316;0.3252;0.2566;0.2666;0.2261;0.2540;0.2753;0.0546;0.6993;0.1326;0.0170;0.6633;0.1221
578;0.3314;0.3328;0.3217;0.2535;0.2644;0.2258;0.2540;0.2762;0.0562;0.6999;0.1300;0.0170;0.6692;0.1207
579;0.3362;0.3340;0.3183;0.2503;0.2623;0.2254;0.2540;0.2771;0.0580;0.7004;0.1274;0.0170;0.6749;0.1193
580;0.3410;0.3350;0.3150;0.2470;0.2600;0.2250;0.2540;0.2780;0.0600;0.7010;0.1250;0.0170;0.6800;0.1180
581;0.3460;0.3359;0.3117;0.2435;0.2576;0.2244;0.2543;0.2790;0.0624;0.7016;0.1226;0.0170;0.6847;0.1167
582;0.3513;0.3368;0.3084;0.2398;0.2550;0.2237;0.2551;0.2801;0.0653;0.7023;0.1203;0.0170;0.6892;0.1155
583;0.3567;0.3377;0.3052;0.2361;0.2524;0.2230;0.2563;0.2812;0.0685;0.7030;0.1181;0.0170;0.6933;0.1144
584;0.3620;0.3384;0.3020;0.2324;0.2498;0.2224;0.2576;0.2825;0.0721;0.7036;0.1159;0.0170;0.6973;0.1132
585;0.3670;0.3390;0.2990;0.2290;0.2470;0.2220;0.2590;0.2840;0.0760;0.7040;0.1140;0.0170;0.7010;0.1120
586;0.3719;0.3395;0.2961;0.2258;0.2441;0.2217;0.2606;0.2857;0.0803;0.7043;0.1122;0.0169;0.7045;0.1108
587;0.3766;0.3401;0.2932;0.2229;0.2410;0.2215;0.2627;0.2876;0.0852;0.7046;0.1105;0.0166;0.7079;0.1095
588;0.3813;0.3406;0.2904;0.2199;0.2379;0.2214;0.2650;0.2898;0.0905;0.7048;0.1089;0.0164;0.7111;0.1083
589;0.3857;0.3409;0.2877;0.2170;0.2348;0.2212;0.2675;0.2923;0.0962;0.7049;0.1074;0.0161;0.7142;0.1071
590;0.3900;0.3410;0.2850;0.2140;0.2320;0.2210;0.2700;0.2950;0.1020;0.7050;0.1060;0.0160;0.7170;0.1060
591;0.3941;0.3410;0.2822;0.2108;0.2294;0.2208;0.2725;0.2982;0.1080;0.7050;0.1047;0.0160;0.7197;0.1049
592;0.3981;0.3410;0.2794;0.2075;0.2269;0.2205;0.2752;0.3020;0.1142;0.7050;0.1034;0.0160;0.7224;0.1038
593;0.4019;0.3410;0.2767;0.2042;0.2245;0.2203;0.2780;0.3063;0.1209;0.7050;0.1021;0.0160;0.7248;0.1028
594;0.4055;0.3410;0.2742;0.2010;0.2222;0.2201;0.2809;0.3110;0.1281;0.7050;0.1010;0.0160;0.7271;0.1018
595;0.4090;0.3410;0.2720;0.1980;0.2200;0.2200;0.2840;0.3160;0.1360;0.7050;0.1000;0.0160;0.7290;0.1010
596;0.4123;0.3411;0.2701;0.1952;0.2179;0.2200;0.2873;0.3215;0.1451;0.7051;0.0991;0.0160;0.7307;0.1003
597;0.4155;0.3414;0.2685;0.1924;0.2159;0.2200;0.2907;0.3277;0.1553;0.7053;0.0983;0.0160;0.7321;0.0997
598;0.4185;0.3416;0.2669;0.1898;0.2139;0.2200;0.2943;0.3343;0.1664;0.7055;0.0975;0.0160;0.7335;0.0991
599;0.4214;0.3419;0.2655;0.1873;0.2120;0.2200;0.2981;0.3411;0.1781;0.7058;0.0968;0.0160;0.7347;0.0986
600;0.4240;0.3420;0.2640;0.1850;0.2100;0.2200;0.3020;0.3480;0.1900;0.7060;0.0960;0.0160;0.7360;0.0980
601;0.4265;0.3420;0.2625;0.1828;0.2079;0.2200;0.3062;0.3547;0.2022;0.7062;0.0952;0.0160;0.7373;0.0974
602;0.4289;0.3420;0.2610;0.1806;0.2058;0.2200;0.3106;0.3615;0.2148;0.7065;0.0943;0.0160;0.7387;0.0967
603;0.4311;0.3420;0.2596;0.1785;0.2036;0.2200;0.3151;0.3686;0.2281;0.7067;0.0934;0.0160;0.7399;0.0961
604;0.4332;0.3420;0.2582;0.1766;0.2017;0.2200;0.3197;0.3760;0.2418;0.7069;0.0926;0.0160;0.7411;0.0955
605;0.4350;0.3420;0.2570;0.1750;0.2000;0.2200;0.3240;0.3840;0.2560;0.7070;0.0920;0.0160;0.7420;0.0950
606;0.4366;0.3420;0.2559;0.1736;0.1986;0.2200;0.3282;0.3930;0.2710;0.7070;0.0915;0.0160;0.7427;0.0946
607;0.4381;0.3420;0.2549;0.1723;0.1973;0.2200;0.3322;0.4029;0.2868;0.7070;0.0911;0.0160;0.7434;0.0942
608;0.4394;0.3420;0.2539;0.1712;0.1962;0.2200;0.3362;0.4134;0.3031;0.7070;0.0908;0.0160;0.7440;0.0938
609;0.4407;0.3420;0.2530;0.1701;0.1951;0.2200;0.3402;0.4239;0.3196;0.7070;0.0904;0.0160;0.7445;0.0934
610;0.4420;0.3420;0.2520;0.1690;0.1940;0.2200;0.3440;0.4340;0.3360;0.7070;0.0900;0.0160;0.7450;0.0930
611;0.4434;0.3419;0.2510;0.1679;0.1929;0.2200;0.3478;0.4438;0.3522;0.7070;0.0895;0.0160;0.7455;0.0924
612;0.4448;0.3416;0.2500;0.1669;0.1919;0.2200;0.3515;0.4534;0.3684;0.7070;0.0888;0.0160;0.7459;0.0917
613;0.4461;0.3414;0.2491;0.1659;0.1909;0.2200;0.3551;0.4630;0.3848;0.7070;0.0882;0.0160;0.7463;0.0910
614;0.4472;0.3411;0.2481;0.1649;0.1899;0.2200;0.3586;0.4726;0.4013;0.7070;0.0875;0.0160;0.7467;0.0904
615;0.4480;0.3410;0.2470;0.1640;0.1890;0.2200;0.3620;0.4820;0.4180;0.7070;0.0870;0.0160;0.7470;0.0900
616;0.4485;0.3410;0.2459;0.1631;0.1881;0.2202;0.3652;0.4914;0.4353;0.7071;0.0866;0.0160;0.7473;0.0897
617;0.4490;0.3410;0.2447;0.1623;0.1872;0.2207;0.3684;0.5008;0.4530;0.7074;0.0862;0.0160;0.7475;0.0896
618;0.4494;0.3410;0.2435;0.1616;0.1864;0.2215;0.3714;0.5102;0.4708;0.7076;0.0858;0.0160;0.7478;0.0894
619;0.4497;0.3410;0.2422;0.1608;0.1856;0.2222;0.3743;0.5192;0.4883;0.7079;0.0854;0.0160;0.7479;0.0892
620;0.4500;0.3410;0.2410;0.1600;0.1850;0.2230;0.3770;0.5280;0.5050;0.7080;0.0850;0.0160;0.7480;0.0890
621;0.4503;0.3408;0.2398;0.1592;0.1845;0.2237;0.3796;0.5364;0.5211;0.7080;0.0845;0.0160;0.7480;0.0887
622;0.4505;0.3403;0.2386;0.1583;0.1841;0.2244;0.3820;0.5446;0.5370;0.7080;0.0838;0.0160;0.7480;0.0882
623;0.4508;0.3397;0.2374;0.1574;0.1838;0.2252;0.3844;0.5526;0.5524;0.7080;0.0832;0.0160;0.7480;0.0878
624;0.4509;0.3392;0.2362;0.1566;0.1834;0.2261;0.3867;0.5604;0.5671;0.7080;0.0825;0.0160;0.7480;0.0873
625;0.4510;0.3390;0.2350;0.1560;0.1830;0.2270;0.3890;0.5680;0.5810;0.7080;0.0820;0.0160;0.7480;0.0870
626;0.4510;0.3390;0.2338;0.1555;0.1825;0.2280;0.3913;0.5757;0.5943;0.7082;0.0815;0.0162;0.7480;0.0868
627;0.4510;0.3390;0.2325;0.1551;0.1819;0.2292;0.3935;0.5833;0.6071;0.7086;0.0811;0.0167;0.7480;0.0866
628;0.4510;0.3390;0.2313;0.1547;0.1813;0.2305;0.3957;0.5907;0.6193;0.7091;0.0807;0.0173;0.7480;0.0864
629;0.4510;0.3390;0.2301;0.1544;0.1806;0.2318;0.3979;0.5977;0.6307;0.7096;0.0803;0.0178;0.7480;0.0862
630;0.4510;0.3390;0.2290;0.1540;0.1800;0.2330;0.4000;0.6040;0.6410;0.7100;0.0800;0.0180;0.7480;0.0860
631;0.4510;0.3389;0.2279;0.1536;0.1794;0.2342;0.4021;0.6097;0.6503;0.7102;0.0798;0.0180;0.7480;0.0858
632;0.4510;0.3386;0.2269;0.1531;0.1787;0.2355;0.4041;0.6150;0.6588;0.7104;0.0796;0.0180;0.7480;0.0856
633;0.4510;0.3384;0.2259;0.1527;0.1780;0.2367;0.4060;0.6199;0.6668;0.7106;0.0794;0.0180;0.7480;0.0854
634;0.4510;0.3381;0.2249;0.1523;0.1774;0.2379;0.4080;0.6246;0.6745;0.7108;0.0792;0.0180;0.7480;0.0852
635;0.4510;0.3380;0.2240;0.1520;0.1770;0.2390;0.4100;0.6290;0.6820;0.7110;0.0790;0.0180;0.7480;0.0850
636;0.4510;0.3380;0.2231;0.1518;0.1767;0.2400;0.4120;0.6332;0.6896;0.7112;0.0788;0.0180;0.7480;0.0848
637;0.4510;0.3380;0.2223;0.1516;0.1765;0.2410;0.4141;0.6372;0.6971;0.7114;0.0785;0.0180;0.7480;0.0845
638;0.4510;0.3380;0.2215;0.1514;0.1764;0.2419;0.4161;0.6410;0.7043;0.7116;0.0783;0.0180;0.7480;0.0843
639;0.4510;0.3380;0.2207;0.1512;0.1762;0.2429;0.4181;0.6446;0.7110;0.7118;0.0781;0.0180;0.7480;0.0841
640;0.4510;0.3380;0.2200;0.1510;0.1760;0.2440;0.4200;0.6480;0.7170;0.7120;0.0780;0.0180;0.7480;0.0840
641;0.4510;0.3379;0.2193;0.1507;0.1758;0.2453;0.4219;0.6513;0.7223;0.7123;0.0780;0.0180;0.7480;0.0840
642;0.4510;0.3377;0.2186;0.1502;0.1755;0.2466;0.4237;0.6544;0.7272;0.7127;0.0780;0.0180;0.7480;0.0840
643;0.4510;0.3375;0.2179;0.1498;0.1753;0.2481;0.4254;0.6573;0.7317;0.7131;0.0780;0.0180;0.7480;0.0840
644;0.4510;0.3372;0.2174;0.1493;0.1751;0.2496;0.4272;0.6602;0.7359;0.7136;0.0780;0.0180;0.7480;0.0840
645;0.4510;0.3370;0.2170;0.1490;0.1750;0.2510;0.4290;0.6630;0.7400;0.7140;0.0780;0.0180;0.7480;0.0840
646;0.4509;0.3368;0.2167;0.1487;0.1750;0.2524;0.4308;0.6658;0.7440;0.7144;0.0780;0.0181;0.7480;0.0840
647;0.4506;0.3366;0.2164;0.1485;0.1750;0.2539;0.4327;0.6686;0.7479;0.7148;0.0780;0.0183;0.7480;0.0840
648;0.4504;0.3364;0.2162;0.1482;0.1750;0.2554;0.4346;0.6712;0.7515;0.7152;0.0780;0.0185;0.7480;0.0840
649;0.4501;0.3362;0.2161;0.1481;0.1750;0.2567;0.4363;0.6737;0.7549;0.7156;0.0780;0.0188;0.7480;0.0840
650;0.4500;0.3360;0.2160;0.1480;0.1750;0.2580;0.4380;0.6760;0.7580;0.7160;0.0780;0.0190;0.7480;0.0840
651;0.4500;0.3358;0.2160;0.1480;0.1750;0.2591;0.4395;0.6780;0.7607;0.7164;0.0780;0.0192;0.7480;0.0840
652;0.4500;0.3356;0.2160;0.1480;0.1750;0.2601;0.4409;0.6799;0.7632;0.7168;0.0780;0.0194;0.7480;0.0840
653;0.4500;0.3354;0.2160;0.1480;0.1750;0.2611;0.4423;0.6816;0.7655;0.7172;0.0780;0.0195;0.7480;0.0840
654;0.4500;0.3352;0.2160;0.1480;0.1750;0.2620;0.4436;0.6833;0.7677;0.7176;0.0780;0.0197;0.7480;0.0840
655;0.4500;0.3350;0.2160;0.1480;0.1750;0.2630;0.4450;0.6850;0.7700;0.7180;0.0780;0.0200;0.7480;0.0840
656;0.4501;0.3348;0.2162;0.1480;0.1750;0.2640;0.4464;0.6867;0.7723;0.7184;0.0782;0.0205;0.7479;0.0841
657;0.4504;0.3346;0.2167;0.1480;0.1750;0.2650;0.4479;0.6883;0.7746;0.7188;0.0788;0.0211;0.7476;0.0842
658;0.4506;0.3344;0.2174;0.1480;0.1750;0.2660;0.4494;0.6899;0.7768;0.7192;0.0796;0.0219;0.7474;0.0845
659;0.4509;0.3342;0.2182;0.1480;0.1750;0.2670;0.4507;0.6915;0.7790;0.7196;0.0804;0.0225;0.7471;0.0847
660;0.4510;0.3340;0.2190;0.1480;0.1750;0.2680;0.4520;0.6930;0.7810;0.7200;0.0810;0.0230;0.7470;0.0850
661;0.4510;0.3336;0.2198;0.1481;0.1751;0.2690;0.4531;0.6945;0.7830;0.7204;0.0814;0.0233;0.7470;0.0853
662;0.4510;0.3331;0.2208;0.1482;0.1755;0.2700;0.4541;0.6960;0.7848;0.7208;0.0818;0.0234;0.7470;0.0856
663;0.4510;0.3326;0.2218;0.1485;0.1760;0.2710;0.4551;0.6974;0.7866;0.7211;0.0821;0.0236;0.7470;0.0860
664;0.4510;0.3322;0.2229;0.1487;0.1765;0.2720;0.4560;0.6988;0.7884;0.7215;0.0825;0.0238;0.7470;0.0865
665;0.4510;0.3320;0.2240;0.1490;0.1770;0.2730;0.4570;0.7000;0.7900;0.7220;0.0830;0.0240;0.7470;0.0870
666;0.4512;0.3320;0.2251;0.1493;0.1775;0.2740;0.4580;0.7011;0.7915;0.7225;0.0837;0.0243;0.7470;0.0877
667;0.4516;0.3320;0.2262;0.1497;0.1781;0.2751;0.4591;0.7022;0.7930;0.7231;0.0847;0.0246;0.7470;0.0887
668;0.4521;0.3320;0.2274;0.1501;0.1787;0.2762;0.4601;0.7032;0.7944;0.7237;0.0858;0.0250;0.7470;0.0899
669;0.4526;0.3320;0.2287;0.1505;0.1794;0.2772;0.4611;0.7041;0.7957;0.7243;0.0869;0.0255;0.7470;0.0910
670;0.4530;0.3320;0.2300;0.1510;0.1800;0.2780;0.4620;0.7050;0.7970;0.7250;0.0880;0.0260;0.7470;0.0920
671;0.4532;0.3319;0.2314;0.1515;0.1806;0.2787;0.4629;0.7059;0.7983;0.7258;0.0890;0.0266;0.7470;0.0928
672;0.4534;0.3316;0.2329;0.1521;0.1812;0.2794;0.4638;0.7067;0.7995;0.7266;0.0899;0.0274;0.7470;0.0936
673;0.4536;0.3314;0.2344;0.1527;0.1818;0.2800;0.4646;0.7075;0.8006;0.7275;0.0908;0.0282;0.7470;0.0943
674;0.4538;0.3311;0.2361;0.1533;0.1824;0.2805;0.4654;0.7083;0.8018;0.7284;0.0918;0.0291;0.7470;0.0951
675;0.4540;0.3310;0.2380;0.1540;0.1830;0.2810;0.4660;0.7090;0.8030;0.7290;0.0930;0.0300;0.7470;0.0960
676;0.4542;0.3310;0.2401;0.1547;0.1836;0.2814;0.4665;0.7097;0.8042;0.7295;0.0945;0.0309;0.7470;0.0970
677;0.4544;0.3310;0.2426;0.1555;0.1842;0.2818;0.4669;0.7103;0.8055;0.7298;0.0962;0.0318;0.7470;0.0981
678;0.4546;0.3310;0.2452;0.1563;0.1848;0.2822;0.4673;0.7108;0.8067;0.7302;0.0981;0.0328;0.7470;0.0994
679;0.4548;0.3310;0.2480;0.1572;0.1854;0.2826;0.4676;0.7114;0.8079;0.7305;0.1001;0.0338;0.7470;0.1007
680;0.4550;0.3310;0.2510;0.1580;0.1860;0.2830;0.4680;0.7120;0.8090;0.7310;0.1020;0.0350;0.7470;0.1020
681;0.4553;0.3309;0.2542;0.1588;0.1866;0.2835;0.4684;0.7126;0.8101;0.7316;0.1039;0.0363;0.7470;0.1034
682;0.4558;0.3307;0.2577;0.1597;0.1872;0.2840;0.4688;0.7133;0.8111;0.7324;0.1058;0.0378;0.7470;0.1049
683;0.4562;0.3305;0.2615;0.1605;0.1878;0.2846;0.4691;0.7139;0.8120;0.7333;0.1078;0.0393;0.7470;0.1064
684;0.4567;0.3302;0.2652;0.1613;0.1884;0.2853;0.4695;0.7145;0.8130;0.7342;0.1098;0.0411;0.7470;0.1081
685;0.4570;0.3300;0.2690;0.1620;0.1890;0.2860;0.4700;0.7150;0.8140;0.7350;0.1120;0.0430;0.7470;0.1100
686;0.4572;0.3298;0.2727;0.1627;0.1896;0.2868;0.4705;0.7155;0.8150;0.7358;0.1143;0.0451;0.7470;0.1122
687;0.4574;0.3296;0.2763;0.1633;0.1902;0.2878;0.4711;0.7159;0.8160;0.7367;0.1168;0.0476;0.7470;0.1147
688;0.4576;0.3294;0.2800;0.1638;0.1908;0.2889;0.4717;0.7162;0.8170;0.7375;0.1194;0.0502;0.7470;0.1174
689;0.4578;0.3292;0.2839;0.1644;0.1914;0.2900;0.4723;0.7166;0.8180;0.7383;0.1222;0.0530;0.7470;0.1202
690;0.4580;0.3290;0.2880;0.1650;0.1920;0.2910;0.4730;0.7170;0.8190;0.7390;0.1250;0.0560;0.7470;0.1230
691;0.4583;0.3288;0.2924;0.1656;0.1926;0.2920;0.4737;0.7174;0.8200;0.7396;0.1279;0.0592;0.7469;0.1257
692;0.4587;0.3285;0.2970;0.1663;0.1932;0.2930;0.4744;0.7178;0.8211;0.7402;0.1310;0.0626;0.7466;0.1285
693;0.4591;0.3283;0.3019;0.1669;0.1937;0.2939;0.4752;0.7182;0.8221;0.7408;0.1342;0.0662;0.7464;0.1313
694;0.4596;0.3281;0.3069;0.1675;0.1943;0.2949;0.4761;0.7186;0.8231;0.7414;0.1375;0.0700;0.7461;0.1341
695;0.4600;0.3280;0.3120;0.1680;0.1950;0.2960;0.4770;0.7190;0.8240;0.7420;0.1410;0.0740;0.7460;0.1370
696;0.4604;0.3280;0.3174;0.1685;0.1958;0.2971;0.4780;0.7195;0.8249;0.7428;0.1447;0.0781;0.7460;0.1399
697;0.4609;0.3280;0.3230;0.1689;0.1967;0.2982;0.4792;0.7200;0.8258;0.7436;0.1486;0.0825;0.7460;0.1428
698;0.4613;0.3280;0.3287;0.1693;0.1977;0.2993;0.4805;0.7205;0.8266;0.7445;0.1527;0.0870;0.7460;0.1458
699;0.4617;0.3280;0.3345;0.1697;0.1985;0.3006;0.4818;0.7209;0.8274;0.7454;0.1569;0.0919;0.7460;0.1489
700;0.4620;0.3280;0.3400;0.1700;0.1990;0.3020;0.4830;0.7210;0.8280;0.7460;0.1610;0.0970;0.7460;0.1520
701;0.4622;0.3279;0.3454;0.1703;0.1993;0.3038;0.4842;0.7209;0.8285;0.7465;0.1651;0.1025;0.7460;0.1552
702;0.4624;0.3277;0.3506;0.1705;0.1996;0.3059;0.4854;0.7207;0.8290;0.7470;0.1693;0.1084;0.7460;0.1586
703;0.4626;0.3275;0.3558;0.1708;0.1998;0.3082;0.4865;0.7205;0.8294;0.7474;0.1736;0.1147;0.7460;0.1620
704;0.4628;0.3272;0.3610;0.1709;0.1999;0.3106;0.4877;0.7202;0.8297;0.7477;0.1778;0.1213;0.7460;0.1654
705;0.4630;0.3270;0.3660;0.1710;0.2000;0.3130;0.4890;0.7200;0.8300;0.7480;0.1820;0.1280;0.7460;0.1690
706;0.4632;0.3268;0.3710;0.1709;0.1999;0.3153;0.4903;0.7198;0.8302;0.7482;0.1862;0.1350;0.7459;0.1727
707;0.4634;0.3266;0.3758;0.1708;0.1997;0.3177;0.4917;0.7195;0.8304;0.7484;0.1904;0.1424;0.7457;0.1764
708;0.4636;0.3264;0.3806;0.1705;0.1995;0.3201;0.4931;0.7193;0.8306;0.7486;0.1947;0.1500;0.7455;0.1803
709;0.4638;0.3262;0.3854;0.1703;0.1992;0.3225;0.4946;0.7191;0.8308;0.7488;0.1989;0.1579;0.7452;0.1842
710;0.4640;0.3260;0.3900;0.1700;0.1990;0.3250;0.4960;0.7190;0.8310;0.7490;0.2030;0.1660;0.7450;0.1880
711;0.4642;0.3258;0.3946;0.1697;0.1988;0.3275;0.4974;0.7192;0.8313;0.7493;0.2071;0.1743;0.7448;0.1918
712;0.4644;0.3256;0.3991;0.1693;0.1986;0.3301;0.4988;0.7198;0.8317;0.7497;0.2111;0.1830;0.7446;0.1956
713;0.4646;0.3254;0.4035;0.1689;0.1984;0.3328;0.5001;0.7205;0.8321;0.7501;0.2151;0.1919;0.7444;0.1994
714;0.4648;0.3252;0.4078;0.1684;0.1982;0.3354;0.5015;0.7213;0.8326;0.7506;0.2191;0.2009;0.7442;0.2032
715;0.4650;0.3250;0.4120;0.1680;0.1980;0.3380;0.5030;0.7220;0.8330;0.7510;0.2230;0.2100;0.7440;0.2070
716;0.4652;0.3248;0.4160;0.1676;0.1977;0.3406;0.5045;0.7226;0.8334;0.7514;0.2269;0.2192;0.7438;0.2108
717;0.4655;0.3245;0.4200;0.1672;0.1972;0.3432;0.5062;0.7233;0.8339;0.7519;0.2309;0.2285;0.7435;0.2147
718;0.4657;0.3243;0.4238;0.1668;0.1968;0.3458;0.5078;0.7239;0.8343;0.7523;0.2348;0.2380;0.7433;0.2186
719;0.4659;0.3241;0.4275;0.1664;0.1963;0.3484;0.5095;0.7245;0.8347;0.7527;0.2385;0.2475;0.7431;0.2223
720;0.4660;0.3240;0.4310;0.1660;0.1960;0.3510;0.5110;0.7250;0.8350;0.7530;0.2420;0.2570;0.7430;0.2260
721;0.4660;0.3240;0.4344;0.1655;0.1957;0.3536;0.5125;0.7255;0.8353;0.7532;0.2453;0.2665;0.7431;0.2295
722;0.4660;0.3240;0.4378;0.1650;0.1955;0.3562;0.5139;0.7259;0.8355;0.7534;0.2484;0.2761;0.7433;0.2329
723;0.4660;0.3240;0.4410;0.1645;0.1952;0.3589;0.5152;0.7262;0.8358;0.7536;0.2513;0.2857;0.7435;0.2363
724;0.4660;0.3240;0.4441;0.1641;0.1951;0.3615;0.5166;0.7266;0.8359;0.7538;0.2542;0.2953;0.7438;0.2396
725;0.4660;0.3240;0.4470;0.1640;0.1950;0.3640;0.5180;0.7270;0.8360;0.7540;0.2570;0.3050;0.7440;0.2430
726;0.4660;0.3240;0.4498;0.1640;0.1950;0.3664;0.5194;0.7274;0.8360;0.7542;0.2597;0.3148;0.7442;0.2464
727;0.4660;0.3240;0.4524;0.1640;0.1950;0.3688;0.5208;0.7279;0.8360;0.7545;0.2624;0.3246;0.7444;0.2498
728;0.4660;0.3240;0.4550;0.1640;0.1950;0.3712;0.5222;0.7283;0.8360;0.7547;0.2650;0.3345;0.7445;0.2532
729;0.4660;0.3240;0.4575;0.1640;0.1950;0.3736;0.5236;0.7287;0.8360;0.7549;0.2675;0.3443;0.7447;0.2566
730;0.4660;0.3240;0.4600;0.1640;0.1950;0.3760;0.5250;0.7290;0.8360;0.7550;0.2700;0.3540;0.7450;0.2600
731;0.4660;0.3239;0.4625;0.1641;0.1951;0.3786;0.5264;0.7293;0.8361;0.7550;0.2725;0.3636;0.7454;0.2634
732;0.4660;0.3237;0.4650;0.1642;0.1953;0.3812;0.5278;0.7295;0.8363;0.7550;0.2750;0.3730;0.7460;0.2668
733;0.4660;0.3235;0.4675;0.1644;0.1955;0.3838;0.5292;0.7298;0.8365;0.7550;0.2774;0.3824;0.7467;0.2702
734;0.4660;0.3232;0.4698;0.1647;0.1958;0.3864;0.5306;0.7299;0.8368;0.7550;0.2798;0.3918;0.7474;0.2736
735;0.4660;0.3230;0.4720;0.1650;0.1960;0.3890;0.5320;0.7300;0.8370;0.7550;0.2820;0.4010;0.7480;0.2770
736;0.4661;0.3228;0.4740;0.1654;0.1962;0.3915;0.5334;0.7300;0.8372;0.7550;0.2841;0.4102;0.7485;0.2804
737;0.4664;0.3226;0.4759;0.1659;0.1964;0.3939;0.5348;0.7300;0.8374;0.7550;0.2861;0.4194;0.7490;0.2838
738;0.4666;0.3224;0.4777;0.1666;0.1965;0.3962;0.5362;0.7300;0.8376;0.7550;0.2881;0.4286;0.7495;0.2873
739;0.4669;0.3222;0.4794;0.1673;0.1967;0.3986;0.5376;0.7300;0.8378;0.7550;0.2900;0.4374;0.7499;0.2907
740;0.4670;0.3220;0.4810;0.1680;0.1970;0.4010;0.5390;0.7300;0.8380;0.7550;0.2920;0.4460;0.7500;0.2940
741;0.4670;0.3218;0.4825;0.1687;0.1974;0.4034;0.5404;0.7300;0.8382;0.7550;0.2940;0.4542;0.7500;0.2973
742;0.4670;0.3216;0.4840;0.1695;0.1980;0.4058;0.5418;0.7300;0.8385;0.7550;0.2961;0.4622;0.7500;0.3005
743;0.4670;0.3214;0.4855;0.1703;0.1987;0.4082;0.5432;0.7300;0.8387;0.7550;0.2982;0.4700;0.7500;0.3037
744;0.4670;0.3212;0.4868;0.1711;0.1994;0.4106;0.5446;0.7300;0.8389;0.7550;0.3001;0.4776;0.7500;0.3069
745;0.4670;0.3210;0.4880;0.1720;0.2000;0.4130;0.5460;0.7300;0.8390;0.7550;0.3020;0.4850;0.7500;0.3100
746;0.4670;0.3208;0.4891;0.1729;0.2006;0.4154;0.5474;0.7300;0.8390;0.7551;0.3038;0.4923;0.7499;0.3131
747;0.4670;0.3206;0.4902;0.1740;0.2013;0.4179;0.5489;0.7300;0.8390;0.7553;0.3056;0.4995;0.7497;0.3161
748;0.4670;0.3204;0.4912;0.1750;0.2019;0.4203;0.5503;0.7300;0.8390;0.7555;0.3073;0.5065;0.7495;0.3191
749;0.4670;0.3202;0.4921;0.1761;0.2025;0.4227;0.5517;0.7300;0.8390;0.7558;0.3088;0.5133;0.7492;0.3221
750;0.4670;0.3200;0.4930;0.1770;0.2030;0.4250;0.5530;0.7300;0.8390;0.7560;0.3100;0.5200;0.7490;0.3250
751;0.4670;0.3197;0.4939;0.1779;0.2034;0.4273;0.5543;0.7300;0.8390;0.7562;0.3110;0.5265;0.7488;0.3279
752;0.4670;0.3193;0.4947;0.1787;0.2038;0.4295;0.5555;0.7300;0.8390;0.7564;0.3118;0.5329;0.7485;0.3307
753;0.4670;0.3189;0.4955;0.1794;0.2042;0.4316;0.5566;0.7300;0.8390;0.7566;0.3126;0.5392;0.7483;0.3334
754;0.4670;0.3184;0.4963;0.1802;0.2046;0.4338;0.5578;0.7300;0.8390;0.7568;0.3133;0.5452;0.7481;0.3362
755;0.4670;0.3180;0.4970;0.1810;0.2050;0.4360;0.5590;0.7300;0.8390;0.7570;0.3140;0.5510;0.7480;0.3390
756;0.4670;0.3176;0.4977;0.1818;0.2055;0.4382;0.5602;0.7300;0.8390;0.7572;0.3146;0.5566;0.7480;0.3418
757;0.4670;0.3171;0.4983;0.1826;0.2061;0.4404;0.5615;0.7300;0.8390;0.7574;0.3152;0.5619;0.7480;0.3446
758;0.4670;0.3167;0.4989;0.1834;0.2067;0.4426;0.5627;0.7300;0.8390;0.7576;0.3157;0.5671;0.7480;0.3475
759;0.4670;0.3163;0.4995;0.1842;0.2073;0.4448;0.5639;0.7300;0.8390;0.7578;0.3163;0.5722;0.7480;0.3503
760;0.4670;0.3160;0.5000;0.1850;0.2080;0.4470;0.5650;0.7300;0.8390;0.7580;0.3170;0.5770;0.7480;0.3530
761;0.4670;0.3157;0.5004;0.1858;0.2087;0.4492;0.5661;0.7300;0.8390;0.7582;0.3179;0.5817;0.7479;0.3557
762;0.4670;0.3155;0.5008;0.1867;0.2096;0.4514;0.5671;0.7300;0.8390;0.7585;0.3191;0.5862;0.7476;0.3583
763;0.4670;0.3152;0.5012;0.1875;0.2104;0.4536;0.5680;0.7300;0.8390;0.7587;0.3203;0.5906;0.7474;0.3608
764;0.4670;0.3151;0.5016;0.1883;0.2113;0.4558;0.5690;0.7300;0.8390;0.7589;0.3217;0.5949;0.7471;0.3634
765;0.4670;0.3150;0.5020;0.1890;0.2120;0.4580;0.5700;0.7300;0.8390;0.7590;0.3230;0.5990;0.7470;0.3660
766;0.4670;0.3150;0.5025;0.1897;0.2127;0.4603;0.5710;0.7300;0.8390;0.7590;0.3244;0.6030;0.7470;0.3686
767;0.4670;0.3150;0.5030;0.1903;0.2133;0.4626;0.5721;0.7300;0.8390;0.7590;0.3259;0.6070;0.7470;0.3713
768;0.4670;0.3150;0.5036;0.1909;0.2139;0.4649;0.5732;0.7300;0.8390;0.7590;0.3274;0.6109;0.7470;0.3740
769;0.4670;0.3150;0.5043;0.1915;0.2145;0.4670;0.5742;0.7300;0.8390;0.7590;0.3288;0.6145;0.7470;0.3765
770;0.4670;0.3150;0.5050;0.1920;0.2150;0.4690;0.5750;0.7300;0.8390;0.7590;0.3300;0.6180;0.7470;0.3790
771;0.4670;0.3149;0.5058;0.1924;0.2155;0.4708;0.5757;0.7300;0.8390;0.7590;0.3309;0.6213;0.7470;0.3814
772;0.4670;0.3146;0.5068;0.1928;0.2159;0.4724;0.5763;0.7300;0.8390;0.7590;0.3318;0.6244;0.7470;0.3836
773;0.4670;0.3144;0.5078;0.1932;0.2162;0.4739;0.5769;0.7300;0.8390;0.7590;0.3325;0.6274;0.7470;0.3858
774;0.4670;0.3141;0.5089;0.1936;0.2166;0.4754;0.5774;0.7300;0.8390;0.7590;0.3332;0.6303;0.7470;0.3880
775;0.4670;0.3140;0.5100;0.1940;0.2170;0.4770;0.5780;0.7300;0.8390;0.7590;0.3340;0.6330;0.7470;0.3900
776;0.4670;0.3140;0.5111;0.1945;0.2174;0.4786;0.5786;0.7300;0.8390;0.7590;0.3348;0.6356;0.7470;0.3919
777;0.4670;0.3140;0.5123;0.1951;0.2178;0.4802;0.5792;0.7300;0.8390;0.7590;0.3356;0.6381;0.7470;0.3938
778;0.4670;0.3140;0.5135;0.1957;0.2182;0.4818;0.5798;0.7300;0.8390;0.7590;0.3364;0.6404;0.7470;0.3956
779;0.4670;0.3140;0.5147;0.1963;0.2186;0.4834;0.5804;0.7300;0.8390;0.7590;0.3372;0.6427;0.7470;0.3973
780;0.4670;0.3140;0.5160;0.1970;0.2190;0.4850;0.5810;0.7300;0.8390;0.7590;0.3380;0.6450;0.7470;0.3990
